# E (eV)  tot(E)     totldos    #  1 (E)   
 -5.954  0.512E-04  0.545E-04  0.545E-04
 -5.854  0.913E-02  0.971E-02  0.971E-02
 -5.754  0.241E+00  0.256E+00  0.256E+00
 -5.654  0.106E+01  0.113E+01  0.113E+01
 -5.554  0.116E+01  0.123E+01  0.123E+01
 -5.454  0.788E+00  0.837E+00  0.837E+00
 -5.354  0.619E+00  0.658E+00  0.658E+00
 -5.254  0.532E+00  0.566E+00  0.566E+00
 -5.154  0.476E+00  0.506E+00  0.506E+00
 -5.054  0.436E+00  0.463E+00  0.463E+00
 -4.954  0.405E+00  0.431E+00  0.431E+00
 -4.854  0.381E+00  0.406E+00  0.406E+00
 -4.754  0.362E+00  0.385E+00  0.385E+00
 -4.654  0.346E+00  0.368E+00  0.368E+00
 -4.554  0.333E+00  0.354E+00  0.354E+00
 -4.454  0.322E+00  0.343E+00  0.343E+00
 -4.354  0.314E+00  0.334E+00  0.334E+00
 -4.254  0.307E+00  0.326E+00  0.326E+00
 -4.154  0.301E+00  0.321E+00  0.321E+00
 -4.054  0.297E+00  0.317E+00  0.317E+00
 -3.954  0.296E+00  0.315E+00  0.315E+00
 -3.854  0.297E+00  0.316E+00  0.316E+00
 -3.754  0.304E+00  0.324E+00  0.324E+00
 -3.654  0.375E+00  0.400E+00  0.400E+00
 -3.554  0.558E+00  0.595E+00  0.595E+00
 -3.454  0.686E+00  0.731E+00  0.731E+00
 -3.354  0.108E+01  0.115E+01  0.115E+01
 -3.254  0.173E+01  0.185E+01  0.185E+01
 -3.154  0.148E+01  0.158E+01  0.158E+01
 -3.054  0.120E+01  0.128E+01  0.128E+01
 -2.954  0.117E+01  0.125E+01  0.125E+01
 -2.854  0.112E+01  0.119E+01  0.119E+01
 -2.754  0.791E+00  0.845E+00  0.845E+00
 -2.654  0.223E+00  0.238E+00  0.238E+00
 -2.554  0.128E-01  0.137E-01  0.137E-01
 -2.454  0.116E-03  0.124E-03  0.124E-03
 -2.354  0.154E-06  0.165E-06  0.165E-06
 -2.254  0.287E-10  0.307E-10  0.307E-10
 -2.154  0.744E-15  0.795E-15  0.795E-15
 -2.054  0.000E+00  0.000E+00  0.000E+00
 -1.954  0.000E+00  0.000E+00  0.000E+00
 -1.854  0.000E+00  0.000E+00  0.000E+00
 -1.754  0.000E+00  0.000E+00  0.000E+00
 -1.654  0.000E+00  0.000E+00  0.000E+00
 -1.554  0.000E+00  0.000E+00  0.000E+00
 -1.454  0.000E+00  0.000E+00  0.000E+00
 -1.354  0.000E+00  0.000E+00  0.000E+00
 -1.254  0.315E-17  0.327E-17  0.327E-17
 -1.154  0.362E-12  0.375E-12  0.375E-12
 -1.054  0.564E-08  0.584E-08  0.584E-08
 -0.954  0.122E-04  0.126E-04  0.126E-04
 -0.854  0.373E-02  0.386E-02  0.386E-02
 -0.754  0.167E+00  0.173E+00  0.173E+00
 -0.654  0.121E+01  0.125E+01  0.125E+01
 -0.554  0.204E+01  0.212E+01  0.212E+01
 -0.454  0.189E+01  0.197E+01  0.197E+01
 -0.354  0.114E+01  0.118E+01  0.118E+01
 -0.254  0.615E+00  0.642E+00  0.642E+00
 -0.154  0.488E+00  0.509E+00  0.509E+00
 -0.054  0.438E+00  0.458E+00  0.458E+00
  0.046  0.402E+00  0.420E+00  0.420E+00
  0.146  0.386E+00  0.404E+00  0.404E+00
  0.246  0.371E+00  0.388E+00  0.388E+00
  0.346  0.357E+00  0.374E+00  0.374E+00
  0.446  0.361E+00  0.378E+00  0.378E+00
  0.546  0.346E+00  0.363E+00  0.363E+00
  0.646  0.371E+00  0.388E+00  0.388E+00
  0.746  0.361E+00  0.379E+00  0.379E+00
  0.846  0.389E+00  0.408E+00  0.408E+00
  0.946  0.283E+00  0.297E+00  0.297E+00
  1.046  0.192E+00  0.201E+00  0.201E+00
  1.146  0.144E+00  0.150E+00  0.150E+00
  1.246  0.173E+00  0.180E+00  0.180E+00
  1.346  0.135E+00  0.140E+00  0.140E+00
  1.446  0.168E+00  0.175E+00  0.175E+00
  1.546  0.137E+00  0.142E+00  0.142E+00
  1.646  0.155E+00  0.161E+00  0.161E+00
  1.746  0.146E+00  0.152E+00  0.152E+00
  1.846  0.138E+00  0.144E+00  0.144E+00
  1.946  0.156E+00  0.162E+00  0.162E+00
  2.046  0.124E+00  0.129E+00  0.129E+00
  2.146  0.162E+00  0.168E+00  0.168E+00
  2.246  0.119E+00  0.124E+00  0.124E+00
  2.346  0.167E+00  0.173E+00  0.173E+00
  2.446  0.342E+00  0.350E+00  0.350E+00
  2.546  0.926E+00  0.943E+00  0.943E+00
  2.646  0.853E+00  0.871E+00  0.871E+00
  2.746  0.601E+00  0.615E+00  0.615E+00
  2.846  0.721E+00  0.739E+00  0.739E+00
  2.946  0.593E+00  0.608E+00  0.608E+00
  3.046  0.411E+00  0.422E+00  0.422E+00
  3.146  0.384E+00  0.394E+00  0.394E+00
  3.246  0.478E+00  0.491E+00  0.491E+00
  3.346  0.474E+00  0.487E+00  0.487E+00
  3.446  0.453E+00  0.466E+00  0.466E+00
  3.546  0.468E+00  0.481E+00  0.481E+00
  3.646  0.445E+00  0.457E+00  0.457E+00
  3.746  0.441E+00  0.453E+00  0.453E+00
  3.846  0.461E+00  0.473E+00  0.473E+00
  3.946  0.414E+00  0.425E+00  0.425E+00
  4.046  0.477E+00  0.490E+00  0.490E+00
  4.146  0.542E+00  0.554E+00  0.554E+00
  4.246  0.990E+00  0.101E+01  0.101E+01
  4.346  0.109E+01  0.111E+01  0.111E+01
  4.446  0.104E+01  0.106E+01  0.106E+01
  4.546  0.139E+01  0.141E+01  0.141E+01
  4.646  0.206E+01  0.209E+01  0.209E+01
  4.746  0.183E+01  0.186E+01  0.186E+01
  4.846  0.159E+01  0.162E+01  0.162E+01
  4.946  0.161E+01  0.164E+01  0.164E+01
  5.046  0.179E+01  0.182E+01  0.182E+01
  5.146  0.231E+01  0.234E+01  0.234E+01
  5.246  0.292E+01  0.297E+01  0.297E+01
  5.346  0.203E+01  0.206E+01  0.206E+01
  5.446  0.149E+01  0.151E+01  0.151E+01
  5.546  0.130E+01  0.132E+01  0.132E+01
  5.646  0.121E+01  0.123E+01  0.123E+01
  5.746  0.118E+01  0.120E+01  0.120E+01
  5.846  0.115E+01  0.117E+01  0.117E+01
  5.946  0.117E+01  0.118E+01  0.118E+01
  6.046  0.121E+01  0.123E+01  0.123E+01
  6.146  0.130E+01  0.132E+01  0.132E+01
  6.246  0.153E+01  0.155E+01  0.155E+01
  6.346  0.207E+01  0.210E+01  0.210E+01
  6.446  0.198E+01  0.201E+01  0.201E+01
  6.546  0.507E+00  0.514E+00  0.514E+00
  6.646  0.222E-01  0.225E-01  0.225E-01
  6.746  0.145E-03  0.147E-03  0.147E-03
  6.846  0.135E-06  0.136E-06  0.136E-06
  6.946  0.175E-10  0.177E-10  0.177E-10
  7.046  0.313E-15  0.318E-15  0.318E-15
  7.146  0.000E+00  0.000E+00  0.000E+00
  7.246  0.000E+00  0.000E+00  0.000E+00
  7.346  0.000E+00  0.000E+00  0.000E+00
  7.446  0.431E-16  0.461E-16  0.461E-16
  7.546  0.297E-11  0.318E-11  0.318E-11
  7.646  0.283E-07  0.302E-07  0.302E-07
  7.746  0.375E-04  0.401E-04  0.401E-04
  7.846  0.707E-02  0.756E-02  0.756E-02
  7.946  0.198E+00  0.212E+00  0.212E+00
  8.046  0.927E+00  0.991E+00  0.991E+00
  8.146  0.107E+01  0.114E+01  0.114E+01
  8.246  0.761E+00  0.811E+00  0.811E+00
  8.346  0.735E+00  0.777E+00  0.777E+00
  8.446  0.123E+01  0.128E+01  0.128E+01
  8.546  0.138E+01  0.143E+01  0.143E+01
  8.646  0.116E+01  0.121E+01  0.121E+01
  8.746  0.146E+01  0.152E+01  0.152E+01
  8.846  0.244E+01  0.252E+01  0.252E+01
  8.946  0.368E+01  0.377E+01  0.377E+01
  9.046  0.408E+01  0.415E+01  0.415E+01
  9.146  0.240E+01  0.245E+01  0.245E+01
  9.246  0.171E+01  0.174E+01  0.174E+01
  9.346  0.159E+01  0.163E+01  0.163E+01
  9.446  0.187E+01  0.190E+01  0.190E+01
  9.546  0.266E+01  0.270E+01  0.270E+01
  9.646  0.260E+01  0.263E+01  0.263E+01
  9.746  0.345E+01  0.349E+01  0.349E+01
  9.846  0.387E+01  0.391E+01  0.391E+01
  9.946  0.350E+01  0.356E+01  0.356E+01
 10.046  0.233E+01  0.242E+01  0.242E+01
 10.146  0.134E+01  0.141E+01  0.141E+01
 10.246  0.111E+01  0.116E+01  0.116E+01
 10.346  0.103E+01  0.107E+01  0.107E+01
 10.446  0.984E+00  0.102E+01  0.102E+01
 10.546  0.980E+00  0.102E+01  0.102E+01
 10.646  0.976E+00  0.101E+01  0.101E+01
 10.746  0.105E+01  0.108E+01  0.108E+01
 10.846  0.118E+01  0.122E+01  0.122E+01
 10.946  0.138E+01  0.141E+01  0.141E+01
 11.046  0.135E+01  0.138E+01  0.138E+01
 11.146  0.113E+01  0.116E+01  0.116E+01
 11.246  0.815E+00  0.835E+00  0.835E+00
 11.346  0.513E+00  0.532E+00  0.532E+00
 11.446  0.275E+00  0.289E+00  0.289E+00
 11.546  0.296E+00  0.311E+00  0.311E+00
 11.646  0.468E+00  0.487E+00  0.487E+00
 11.746  0.896E+00  0.920E+00  0.920E+00
 11.846  0.150E+01  0.154E+01  0.154E+01
 11.946  0.126E+01  0.129E+01  0.129E+01
 12.046  0.811E+00  0.831E+00  0.831E+00
 12.146  0.681E+00  0.696E+00  0.696E+00
 12.246  0.770E+00  0.787E+00  0.787E+00
 12.346  0.913E+00  0.932E+00  0.932E+00
 12.446  0.692E+00  0.706E+00  0.706E+00
 12.546  0.349E+00  0.359E+00  0.359E+00
 12.646  0.604E+00  0.620E+00  0.620E+00
 12.746  0.825E+00  0.847E+00  0.847E+00
 12.846  0.586E+00  0.597E+00  0.597E+00
 12.946  0.604E+00  0.615E+00  0.615E+00
 13.046  0.537E+00  0.546E+00  0.546E+00
 13.146  0.594E+00  0.605E+00  0.605E+00
 13.246  0.851E+00  0.866E+00  0.866E+00
 13.346  0.830E+00  0.844E+00  0.844E+00
 13.446  0.107E+01  0.109E+01  0.109E+01
 13.546  0.187E+01  0.188E+01  0.188E+01
 13.646  0.184E+01  0.185E+01  0.185E+01
 13.746  0.133E+01  0.134E+01  0.134E+01
 13.846  0.130E+01  0.131E+01  0.131E+01
 13.946  0.158E+01  0.159E+01  0.159E+01
 14.046  0.247E+01  0.248E+01  0.248E+01
 14.146  0.352E+01  0.353E+01  0.353E+01
 14.246  0.345E+01  0.347E+01  0.347E+01
 14.346  0.240E+01  0.242E+01  0.242E+01
 14.446  0.202E+01  0.205E+01  0.205E+01
 14.546  0.212E+01  0.216E+01  0.216E+01
 14.646  0.177E+01  0.180E+01  0.180E+01
 14.746  0.116E+01  0.118E+01  0.118E+01
 14.846  0.911E+00  0.928E+00  0.928E+00
 14.946  0.794E+00  0.811E+00  0.811E+00
 15.046  0.855E+00  0.871E+00  0.871E+00
 15.146  0.823E+00  0.838E+00  0.838E+00
 15.246  0.865E+00  0.880E+00  0.880E+00
 15.346  0.903E+00  0.921E+00  0.921E+00
 15.446  0.137E+01  0.140E+01  0.140E+01
 15.546  0.148E+01  0.151E+01  0.151E+01
 15.646  0.149E+01  0.152E+01  0.152E+01
 15.746  0.129E+01  0.131E+01  0.131E+01
 15.846  0.129E+01  0.131E+01  0.131E+01
 15.946  0.191E+01  0.193E+01  0.193E+01
 16.046  0.189E+01  0.191E+01  0.191E+01
 16.146  0.129E+01  0.131E+01  0.131E+01
 16.246  0.830E+00  0.843E+00  0.843E+00
 16.346  0.978E+00  0.987E+00  0.987E+00
 16.446  0.136E+01  0.137E+01  0.137E+01
 16.546  0.106E+01  0.107E+01  0.107E+01
 16.646  0.107E+01  0.108E+01  0.108E+01
 16.746  0.971E+00  0.979E+00  0.979E+00
 16.846  0.103E+01  0.104E+01  0.104E+01
 16.946  0.111E+01  0.111E+01  0.111E+01
 17.046  0.135E+01  0.135E+01  0.135E+01
 17.146  0.134E+01  0.135E+01  0.135E+01
 17.246  0.954E+00  0.965E+00  0.965E+00
 17.346  0.115E+01  0.116E+01  0.116E+01
 17.446  0.112E+01  0.113E+01  0.113E+01
 17.546  0.900E+00  0.911E+00  0.911E+00
 17.646  0.107E+01  0.108E+01  0.108E+01
 17.746  0.172E+01  0.173E+01  0.173E+01
 17.846  0.214E+01  0.216E+01  0.216E+01
 17.946  0.314E+01  0.318E+01  0.318E+01
 18.046  0.322E+01  0.326E+01  0.326E+01
 18.146  0.273E+01  0.277E+01  0.277E+01
 18.246  0.256E+01  0.260E+01  0.260E+01
 18.346  0.224E+01  0.227E+01  0.227E+01
 18.446  0.187E+01  0.189E+01  0.189E+01
 18.546  0.146E+01  0.148E+01  0.148E+01
 18.646  0.128E+01  0.130E+01  0.130E+01
 18.746  0.130E+01  0.132E+01  0.132E+01
 18.846  0.114E+01  0.115E+01  0.115E+01
 18.946  0.113E+01  0.114E+01  0.114E+01
 19.046  0.125E+01  0.126E+01  0.126E+01
 19.146  0.121E+01  0.123E+01  0.123E+01
 19.246  0.146E+01  0.148E+01  0.148E+01
 19.346  0.956E+00  0.968E+00  0.968E+00
 19.446  0.940E+00  0.952E+00  0.952E+00
 19.546  0.948E+00  0.959E+00  0.959E+00
 19.646  0.112E+01  0.114E+01  0.114E+01
 19.746  0.147E+01  0.151E+01  0.151E+01
 19.846  0.152E+01  0.155E+01  0.155E+01
 19.946  0.145E+01  0.148E+01  0.148E+01
 20.046  0.152E+01  0.155E+01  0.155E+01
